Description:
	Tungsten Halogen lamp (3200 K)
	White Illuminant
	Relative spectral power distributions [S(lambda)] for wavelengths lambda = 300 nm to 830Â nm at 1 nm intervals
End
Spectrum:
	300	0.683620
	301	0.727406
	302	0.771191
	303	0.814976
	304	0.858762
	305	0.902547
	306	0.946332
	307	0.990118
	308	1.033903
	309	1.077688
	310	1.121474
	311	1.165259
	312	1.209044
	313	1.252830
	314	1.296615
	315	1.340400
	316	1.384186
	317	1.427971
	318	1.471756
	319	1.515542
	320	1.559327
	321	1.603112
	322	1.646898
	323	1.690683
	324	1.734468
	325	1.778254
	326	1.822039
	327	1.865825
	328	1.909610
	329	1.953395
	330	1.997181
	331	2.040966
	332	2.084751
	333	2.128537
	334	2.172322
	335	2.216107
	336	2.259893
	337	2.374837
	338	2.478714
	339	2.543148
	340	2.714437
	341	3.068416
	342	3.369400
	343	3.416040
	344	3.417287
	345	3.418534
	346	3.571524
	347	3.773339
	348	4.000972
	349	4.238159
	350	4.449102
	351	4.596306
	352	4.690562
	353	4.767334
	354	4.879268
	355	5.079391
	356	5.311725
	357	5.458413
	358	5.548193
	359	5.716158
	360	5.953706
	361	6.124946
	362	6.217306
	363	6.351054
	364	6.570978
	365	6.820856
	366	7.050035
	367	7.225307
	368	7.338994
	369	7.424549
	370	7.519081
	371	7.658950
	372	7.862897
	373	8.108094
	374	8.354983
	375	8.533853
	376	8.619050
	377	8.750621
	378	9.047478
	379	9.403814
	380	9.681384
	381	9.857730
	382	9.956546
	383	10.067081
	384	10.277625
	385	10.505656
	386	10.621761
	387	10.715979
	388	10.966980
	389	11.324199
	390	11.612631
	391	11.812684
	392	12.010566
	393	12.232543
	394	12.454967
	395	12.671222
	396	12.891861
	397	13.113262
	398	13.316139
	399	13.519099
	400	13.790296
	401	14.130923
	402	14.434823
	403	14.653037
	404	14.856133
	405	15.084139
	406	15.285434
	407	15.456451
	408	15.744454
	409	16.214447
	410	16.614180
	411	16.746573
	412	16.825109
	413	17.086120
	414	17.468794
	415	17.844018
	416	18.141674
	417	18.335930
	418	18.557928
	419	18.961573
	420	19.421971
	421	19.717823
	422	19.901579
	423	20.157680
	424	20.504355
	425	20.857779
	426	21.181834
	427	21.479241
	428	21.796124
	429	22.209993
	430	22.671950
	431	23.009025
	432	23.205823
	433	23.437744
	434	23.771765
	435	24.110010
	436	24.418590
	437	24.787024
	438	25.238965
	439	25.650337
	440	25.963091
	441	26.306481
	442	26.756543
	443	27.177029
	444	27.477895
	445	27.830122
	446	28.372974
	447	28.924368
	448	29.291324
	449	29.583994
	450	29.967943
	451	30.435310
	452	30.917443
	453	31.336290
	454	31.634915
	455	31.956852
	456	32.511595
	457	33.207345
	458	33.795416
	459	34.204590
	460	34.489269
	461	34.794426
	462	35.321209
	463	36.015225
	464	36.595182
	465	37.006433
	466	37.443282
	467	37.989839
	468	38.576630
	469	39.137186
	470	39.624466
	471	40.046673
	472	40.504454
	473	41.047740
	474	41.604552
	475	42.133332
	476	42.701553
	477	43.352302
	478	44.012704
	479	44.604005
	480	45.097887
	481	45.506321
	482	45.962098
	483	46.583145
	484	47.262889
	485	47.853776
	486	48.371652
	487	48.887673
	488	49.442227
	489	50.058336
	490	50.724396
	491	51.409234
	492	52.061806
	493	52.627189
	494	53.156500
	495	53.767711
	496	54.440114
	497	55.042586
	498	55.570365
	499	56.141947
	500	56.798567
	501	57.487892
	502	58.155323
	503	58.750935
	504	59.282804
	505	59.848500
	506	60.497110
	507	61.174584
	508	61.834963
	509	62.473782
	510	63.107247
	511	63.790695
	512	64.552295
	513	65.318320
	514	66.013173
	515	66.625215
	516	67.169328
	517	67.712558
	518	68.323447
	519	69.003666
	520	69.735053
	521	70.512106
	522	71.323488
	523	72.075725
	524	72.660169
	525	73.179420
	526	73.833772
	527	74.625228
	528	75.432387
	529	76.192561
	530	76.890166
	531	77.537976
	532	78.172361
	533	78.822131
	534	79.507716
	535	80.256709
	536	81.104068
	537	82.004111
	538	82.798444
	539	83.442017
	540	84.090905
	541	84.842283
	542	85.641724
	543	86.425609
	544	87.149456
	545	87.801764
	546	88.453863
	547	89.175470
	548	89.985327
	549	90.870060
	550	91.731498
	551	92.490294
	552	93.251633
	553	94.131528
	554	95.004750
	555	95.702327
	556	96.327550
	557	97.077101
	558	97.988994
	559	99.013372
	560	100.000000
	561	100.762149
	562	101.376282
	563	102.087242
	564	102.975168
	565	103.983402
	566	104.988762
	567	105.818344
	568	106.533040
	569	107.442868
	570	108.576974
	571	109.594003
	572	110.345792
	573	111.008670
	574	111.743520
	575	112.636743
	576	113.660729
	577	114.568004
	578	115.307807
	579	116.378178
	580	118.018750
	581	119.475488
	582	120.145556
	583	120.578814
	584	121.367456
	585	122.235988
	586	122.820347
	587	123.442461
	588	124.535555
	589	125.918460
	590	127.177648
	591	127.868764
	592	127.680926
	593	127.599182
	594	129.076855
	595	131.331803
	596	132.371904
	597	132.402058
	598	133.120927
	599	134.524467
	600	135.212271
	601	135.259694
	602	136.193077
	603	138.122491
	604	139.473759
	605	139.538285
	606	138.908082
	607	138.496373
	608	139.567258
	609	142.101636
	610	143.636563
	611	143.071685
	612	142.892566
	613	144.731528
	614	146.746924
	615	147.439080
	616	148.111209
	617	150.007643
	618	152.135556
	619	153.255315
	620	153.341754
	621	152.821967
	622	152.734157
	623	154.038672
	624	155.890464
	625	156.909837
	626	157.112419
	627	157.147197
	628	157.463639
	629	158.374428
	630	159.904635
	631	161.873069
	632	163.799772
	633	165.009155
	634	165.381910
	635	165.306720
	636	165.349877
	637	166.220888
	638	167.825810
	639	169.092905
	640	169.549477
	641	169.665522
	642	169.891108
	643	170.518842
	644	171.602828
	645	172.754700
	646	173.596847
	647	173.899124
	648	173.727225
	649	173.911020
	650	175.026329
	651	176.368898
	652	177.198725
	653	177.686414
	654	178.192362
	655	178.904944
	656	179.895774
	657	180.861426
	658	181.453357
	659	181.927620
	660	182.715709
	661	183.587412
	662	184.044723
	663	184.225910
	664	184.611152
	665	185.265544
	666	185.971959
	667	186.623644
	668	187.208996
	669	187.747410
	670	188.283877
	671	188.831781
	672	189.369212
	673	189.903873
	674	190.483714
	675	191.130367
	676	191.821135
	677	192.504592
	678	193.085031
	679	193.527804
	680	193.936458
	681	194.421030
	682	195.064113
	683	195.864477
	684	196.584776
	685	197.048529
	686	197.449162
	687	197.986620
	688	198.541295
	689	198.965823
	690	199.402392
	691	200.031530
	692	200.707071
	693	201.202041
	694	201.604030
	695	202.113660
	696	202.680124
	697	203.139628
	698	203.553533
	699	204.109301
	700	204.790450
	701	205.435354
	702	205.974867
	703	206.423844
	704	206.844128
	705	207.338442
	706	207.901994
	707	208.404379
	708	208.822308
	709	209.287966
	710	209.844920
	711	210.376366
	712	210.817338
	713	211.228584
	714	211.659926
	715	212.105346
	716	212.549559
	717	212.972797
	718	213.378820
	719	213.848125
	720	214.422865
	721	214.942825
	722	215.270783
	723	215.590512
	724	216.110296
	725	216.677598
	726	217.065238
	727	217.356129
	728	217.734142
	729	218.194345
	730	218.648844
	731	219.078583
	732	219.503201
	733	219.939214
	734	220.397547
	735	220.840189
	736	221.196862
	737	221.504908
	738	221.894459
	739	222.354157
	740	222.723868
	741	223.013142
	742	223.446909
	743	224.039470
	744	224.481840
	745	224.673148
	746	224.910626
	747	225.352611
	748	225.799614
	749	226.120307
	750	226.447888
	751	226.882852
	752	227.324137
	753	227.675088
	754	227.973456
	755	228.278734
	756	228.623743
	757	229.028747
	758	229.485819
	759	229.967539
	760	230.382682
	761	230.642372
	762	230.835655
	763	231.109662
	764	231.457295
	765	231.799404
	766	232.121081
	767	232.444572
	768	232.772845
	769	233.096011
	770	233.420491
	771	233.764235
	772	234.101118
	773	234.365116
	774	234.568907
	775	234.813852
	776	235.140027
	777	235.500622
	778	235.843615
	779	236.118595
	780	236.325989
	781	236.557985
	782	236.872064
	783	237.230681
	784	237.582215
	785	237.870453
	786	238.077855
	787	238.305742
	788	238.631005
	789	238.961944
	790	239.202319
	791	239.400285
	792	239.623598
	793	239.839799
	794	240.008717
	795	240.243442
	796	240.675239
	797	241.128853
	798	241.331281
	799	241.393981
	800	241.609178
	801	241.972110
	802	242.296623
	803	242.503984
	804	242.602255
	805	242.689047
	806	242.929608
	807	243.289930
	808	243.536915
	809	243.624648
	810	243.738296
	811	243.958939
	812	244.204227
	813	244.422590
	814	244.632611
	815	244.849640
	816	245.070286
	817	245.289713
	818	245.504643
	819	245.717041
	820	245.942433
	821	246.180956
	822	246.375894
	823	246.488342
	824	246.591958
	825	246.769107
	826	247.017321
	827	247.295456
	828	247.483574
	829	247.478280
	830	247.467328
End
